TITLE,
DATA TYPE,
ORIGIN,JASCO
OWNER,
DATE,20/03/09
TIME,16:23:35
SPECTROMETER/DATA SYSTEM,
LOCALE,1033
RESOLUTION,
DELTAX,-1
XUNITS,NANOMETERS
YUNITS,CD [mdeg]
Y2UNITS,HT [V]
Y3UNITS,ABSORBANCE
FIRSTX,  500.0000
LASTX,  185.0000
NPOINTS,     316
FIRSTY,     1.25821
MAXY,     1.43077
MINY,    -1.58593
XYDATA
500.0000,1.25821,292.437,1.19012
499.0000,1.17584,291.92,1.18452
498.0000,1.16361,291.226,1.177
497.0000,1.21143,290.272,1.16665
496.0000,1.19825,289.129,1.1542
495.0000,1.23432,288.155,1.14356
494.0000,1.28791,287.661,1.13815
493.0000,1.38992,287.318,1.1344
492.0000,1.41969,287.096,1.13196
491.0000,1.43077,287.106,1.13206
490.0000,1.3951,287.331,1.13454
489.0000,1.3803,287.598,1.13746
488.0000,1.32523,287.276,1.13394
487.0000,1.28011,286.41,1.12443
486.0000,1.19051,285.379,1.11307
485.0000,1.14607,284.345,1.10165
484.0000,1.16856,283.436,1.09159
483.0000,1.01118,283.022,1.08699
482.0000,0.968277,282.909,1.08574
481.0000,0.958845,283.023,1.08701
480.0000,0.99234,283.306,1.09015
479.0000,0.946787,283.445,1.09169
478.0000,0.919707,283.312,1.09021
477.0000,0.889812,281.902,1.07454
476.0000,0.990103,280.644,1.06049
475.0000,1.02554,279.627,1.04911
474.0000,1.05473,278.389,1.03519
473.0000,1.01973,276.956,1.01903
472.0000,0.979361,275.31,1.00037
471.0000,0.993232,273.831,0.983534
470.0000,1.09171,273.92,0.98455
469.0000,1.0998,273.878,0.984068
468.0000,1.09406,273.728,0.982361
467.0000,1.11505,273.704,0.98208
466.0000,1.19929,274.015,0.985626
465.0000,1.29466,274.983,0.996655
464.0000,1.26241,276.081,1.00912
463.0000,1.23124,276.497,1.01384
462.0000,1.13683,276.515,1.01404
461.0000,1.15965,276.663,1.01571
460.0000,1.12826,277.194,1.02171
459.0000,1.01412,277.662,1.027
458.0000,1.07334,277.896,1.02964
457.0000,1.04994,277.996,1.03077
456.0000,1.01748,277.683,1.02724
455.0000,0.95033,277.589,1.02618
454.0000,0.953323,277.091,1.02055
453.0000,0.898896,276.242,1.01095
452.0000,0.929477,276.152,1.00993
451.0000,0.924348,276.11,1.00946
450.0000,0.966163,276.147,1.00987
449.0000,0.956341,276.662,1.01571
448.0000,0.92516,276.902,1.01842
447.0000,0.975299,277.744,1.02793
446.0000,0.997868,278.093,1.03186
445.0000,0.986737,277.904,1.02973
444.0000,0.901082,277.645,1.02681
443.0000,0.90652,277.34,1.02337
442.0000,0.974628,276.977,1.01927
441.0000,0.955705,276.654,1.01561
440.0000,1.02677,276.467,1.01349
439.0000,0.941558,276.347,1.01214
438.0000,0.929181,276.24,1.01092
437.0000,0.916384,276.124,1.00961
436.0000,0.951314,276.107,1.00942
435.0000,0.894651,276.152,1.00993
434.0000,0.847301,276.087,1.00919
433.0000,0.808593,275.919,1.00729
432.0000,0.856189,275.71,1.00492
431.0000,0.877186,275.476,1.00225
430.0000,0.847984,275.244,0.999624
429.0000,0.861107,274.969,0.996503
428.0000,0.82429,274.672,0.99312
427.0000,0.82286,274.361,0.989578
426.0000,0.768155,274.094,0.986536
425.0000,0.693937,273.79,0.983067
424.0000,0.701158,273.403,0.978647
423.0000,0.672068,272.923,0.973157
422.0000,0.700035,272.595,0.969403
421.0000,0.661927,272.361,0.966715
420.0000,0.659077,272.159,0.9644
419.0000,0.778207,271.973,0.962272
418.0000,0.804508,271.819,0.960505
417.0000,0.828106,271.797,0.960252
416.0000,0.769384,271.777,0.960023
415.0000,0.713065,271.603,0.958024
414.0000,0.75233,271.4,0.955688
413.0000,0.751081,271.183,0.953194
412.0000,0.669999,270.954,0.950554
411.0000,0.63087,270.794,0.948711
410.0000,0.563534,270.673,0.947318
409.0000,0.624968,270.601,0.946493
408.0000,0.69939,270.501,0.945339
407.0000,0.703415,270.39,0.944056
406.0000,0.714553,270.274,0.942719
405.0000,0.730822,270.115,0.940881
404.0000,0.762952,269.87,0.93805
403.0000,0.808632,269.588,0.934797
402.0000,0.754886,269.256,0.930949
401.0000,0.719334,268.888,0.926698
400.0000,0.721775,268.531,0.922556
399.0000,0.715871,268.213,0.918867
398.0000,0.780686,267.991,0.916285
397.0000,0.654433,267.859,0.914748
396.0000,0.698036,267.781,0.913845
395.0000,0.769171,267.801,0.914075
394.0000,0.759486,267.85,0.914652
393.0000,0.742234,267.901,0.915243
392.0000,0.70897,267.965,0.915979
391.0000,0.690203,267.972,0.916066
390.0000,0.701671,267.972,0.91607
389.0000,0.669886,267.949,0.915799
388.0000,0.709295,267.869,0.914864
387.0000,0.756097,267.779,0.913822
386.0000,0.734428,267.644,0.912255
385.0000,0.677922,267.469,0.910213
384.0000,0.665083,267.281,0.908028
383.0000,0.670121,267.101,0.905934
382.0000,0.605874,266.911,0.903716
381.0000,0.457661,266.75,0.901834
380.0000,0.376155,266.613,0.900238
379.0000,0.324179,266.468,0.898546
378.0000,0.338146,266.356,0.897241
377.0000,0.331223,266.255,0.896066
376.0000,0.326829,266.154,0.894881
375.0000,0.368155,266.059,0.893775
374.0000,0.491891,265.958,0.892591
373.0000,0.4594,265.848,0.891302
372.0000,0.605337,265.767,0.890352
371.0000,0.603584,265.686,0.889406
370.0000,0.529487,265.598,0.88838
369.0000,0.576833,265.506,0.887305
368.0000,0.601137,265.443,0.886558
367.0000,0.542384,265.393,0.885982
366.0000,0.554044,265.346,0.88543
365.0000,0.531839,265.289,0.884761
364.0000,0.576724,265.222,0.883971
363.0000,0.56758,265.189,0.883582
362.0000,0.499586,265.126,0.882854
361.0000,0.447815,265.08,0.882305
360.0000,0.49092,265.046,0.88191
359.0000,0.527965,265.015,0.881547
358.0000,0.540668,264.995,0.881317
357.0000,0.494705,265,0.881373
356.0000,0.554204,264.978,0.881111
355.0000,0.461248,264.985,0.881192
354.0000,0.527701,264.981,0.881146
353.0000,0.500314,264.993,0.88129
352.0000,0.452531,264.987,0.881215
351.0000,0.400107,264.993,0.881293
350.0000,0.395464,264.963,0.880938
349.0000,0.373385,264.967,0.880983
348.0000,0.357352,264.969,0.881003
347.0000,0.367632,264.962,0.880928
346.0000,0.321825,264.93,0.880545
345.0000,0.343333,264.912,0.880338
344.0000,0.37711,264.909,0.880307
343.0000,0.399911,264.923,0.88047
342.0000,0.408869,264.928,0.880533
341.0000,0.391227,264.989,0.881242
340.0000,0.440895,265.101,0.882556
339.0000,0.407354,265.287,0.884741
338.0000,0.346779,265.614,0.888564
337.0000,0.343468,266.093,0.894167
336.0000,0.322558,266.81,0.902542
335.0000,0.320333,267.843,0.914565
334.0000,0.280636,269.25,0.930885
333.0000,0.318486,271.126,0.952532
332.0000,0.290158,273.667,0.981658
331.0000,0.417171,276.87,1.01806
330.0000,0.319016,280.951,1.06393
329.0000,0.27537,285.656,1.11613
328.0000,0.233915,290.807,1.17246
327.0000,0.25019,296.362,1.23229
326.0000,0.265183,302.099,1.2931
325.0000,0.300422,307.842,1.35303
324.0000,0.280549,313.462,1.41078
323.0000,0.278503,318.421,1.46101
322.0000,0.342443,322.816,1.505
321.0000,0.344172,326.415,1.54064
320.0000,0.388787,329.3,1.56898
319.0000,0.343444,331.359,1.58907
318.0000,0.271276,332.699,1.6021
317.0000,0.28248,333.504,1.6099
316.0000,0.301909,333.982,1.61453
315.0000,0.332717,334.322,1.61782
314.0000,0.392109,334.625,1.62074
313.0000,0.385928,334.909,1.62349
312.0000,0.266505,335.23,1.62658
311.0000,0.168323,335.497,1.62916
310.0000,0.206816,335.641,1.63054
309.0000,0.322687,335.571,1.62987
308.0000,0.183661,335.144,1.62575
307.0000,0.145775,334.33,1.61789
306.0000,-0.00361235,333.05,1.60551
305.0000,-0.114585,331.402,1.5895
304.0000,0.00793338,329.461,1.57055
303.0000,-0.121592,327.225,1.54862
302.0000,-0.136476,324.837,1.52506
301.0000,-0.183577,322.31,1.49996
300.0000,-0.275682,319.711,1.47398
299.0000,-0.0408252,317.044,1.44712
298.0000,0.0351087,314.366,1.41998
297.0000,-0.0870965,311.771,1.3935
296.0000,-0.0680069,309.186,1.36692
295.0000,-0.119288,306.498,1.33909
294.0000,-0.144553,303.637,1.30925
293.0000,-0.0890385,300.983,1.28136
292.0000,-0.228357,298.295,1.25289
291.0000,-0.166473,295.649,1.22466
290.0000,-0.16907,293.043,1.19666
289.0000,-0.193387,290.472,1.16882
288.0000,-0.260564,288.094,1.14289
287.0000,-0.237488,285.91,1.11892
286.0000,-0.298252,283.779,1.09538
285.0000,-0.296516,281.731,1.07263
284.0000,-0.233663,279.853,1.05164
283.0000,-0.344969,278.076,1.03167
282.0000,-0.370801,276.409,1.01284
281.0000,-0.392161,274.841,0.995044
280.0000,-0.45264,273.396,0.978561
279.0000,-0.385376,272.112,0.963861
278.0000,-0.361193,270.945,0.950456
277.0000,-0.367267,269.896,0.938352
276.0000,-0.316286,268.918,0.927041
275.0000,-0.264686,268.077,0.917287
274.0000,-0.30067,267.326,0.908552
273.0000,-0.254869,266.73,0.901605
272.0000,-0.289558,266.358,0.897268
271.0000,-0.271167,266.139,0.894704
270.0000,-0.288304,266.161,0.894968
269.0000,-0.393919,266.354,0.897213
268.0000,-0.388169,266.654,0.900721
267.0000,-0.329989,267.111,0.906048
266.0000,-0.41281,267.69,0.91279
265.0000,-0.379648,268.397,0.921005
264.0000,-0.356586,269.242,0.930797
263.0000,-0.355054,270.171,0.941526
262.0000,-0.311683,271.172,0.953061
261.0000,-0.366111,272.295,0.965959
260.0000,-0.251159,273.392,0.978514
259.0000,-0.227275,274.318,0.989086
258.0000,-0.167812,275.164,0.998718
257.0000,-0.14126,275.929,1.0074
256.0000,-0.11267,276.629,1.01533
255.0000,-0.146483,277.283,1.02272
254.0000,-0.207738,277.888,1.02955
253.0000,-0.223568,278.527,1.03675
252.0000,-0.32603,279.1,1.04319
251.0000,-0.448065,279.627,1.04911
250.0000,-0.472427,280.06,1.05396
249.0000,-0.478088,280.365,1.05737
248.0000,-0.414132,280.593,1.05993
247.0000,-0.427476,280.819,1.06245
246.0000,-0.448644,281.061,1.06515
245.0000,-0.411672,281.329,1.06814
244.0000,-0.415235,281.695,1.07223
243.0000,-0.426718,282.06,1.0763
242.0000,-0.375783,282.541,1.08165
241.0000,-0.462093,283.089,1.08773
240.0000,-0.524023,283.718,1.09471
239.0000,-0.62516,284.425,1.10254
238.0000,-0.678405,285.335,1.11259
237.0000,-0.715145,286.387,1.12417
236.0000,-0.805178,287.687,1.13843
235.0000,-0.880439,289.426,1.15743
234.0000,-0.890312,291.039,1.17498
233.0000,-0.885873,293.094,1.19721
232.0000,-0.949457,295.715,1.22537
231.0000,-0.937253,299.126,1.26171
230.0000,-1.00659,302.855,1.30105
229.0000,-1.08366,307.442,1.34889
228.0000,-1.16862,312.748,1.40348
227.0000,-1.45408,318.548,1.4623
226.0000,-1.4901,325.509,1.5317
225.0000,-1.50684,332.05,1.5958
224.0000,-1.58593,338.966,1.66243
223.0000,-1.45657,345.739,1.7266
222.0000,-1.35171,351.899,1.78405
221.0000,-1.34301,358.184,1.8418
220.0000,-1.17937,364.231,1.89657
219.0000,-1.00622,369.011,1.93933
218.0000,-1.16357,373.628,1.98019
217.0000,-1.18251,377.903,2.01765
216.0000,-1.15776,382.024,2.05342
215.0000,-1.22095,386.737,2.09394
214.0000,-1.06791,391.257,2.1324
213.0000,-1.21269,396.459,2.17622
212.0000,-1.01115,402.501,2.22651
211.0000,-0.830021,410.26,2.29016
210.0000,-0.734344,418.709,2.35834
209.0000,-0.930858,429.688,2.44521
208.0000,-0.826365,442.607,2.54508
207.0000,-0.650441,457.489,2.65712
206.0000,-0.672423,471.667,2.76103
205.0000,-0.778535,488.468,2.8808
204.0000,-0.72014,504.227,2.99001
203.0000,-0.446301,522.136,3.11067
202.0000,-0.54092,538.569,3.21834
201.0000,-0.502834,555.592,3.32698
200.0000,-0.306186,572.522,3.43225
199.0000,-0.289675,591.816,3.54905
198.0000,-0.176162,609.571,3.65371
197.0000,-0.487839,632.498,3.78508
196.0000,-0.166077,653.43,3.90152
195.0000,-0.0666002,679.687,4.04317
194.0000,0.0215742,713.119,4.21692
193.0000,0.188471,750.042,4.4009
192.0000,0.180164,793.882,4.60955
191.0000,0.214853,861.871,4.91438
190.0000,0.177077,926.063,5.1838
189.0000,-0.115624,981.847,5.40519
188.0000,-0.394555,1037.85,5.61681
187.0000,-0.273548,1073.53,5.74657
186.0000,-0.679441,1078.35,5.76381
185.0000,-0.689767,1078.62,5.76475

##### Extended Information
[Comments]
Sample name
Comment
User
Division
Company,Saint Mary's College

[Detailed Information]
Creation date,3/9/2020 4:23 PM

Data array type,Linear data array * 3
Horizontal axis,Wavelength [nm]
Vertical axis(1),CD [mdeg]
Vertical axis(2),HT [V]
Vertical axis(3),Abs
Start,500 nm
End,185 nm
Data interval,1 nm
Data points,316     

[Measurement Information]
Instrument name,J-1500
Model name,J-1500
Serial No.,B051061638

Detector,PM-539
Detector S/N,B051061638
  Lock-in amp.,X mode
  HT volt,Auto

Accessory,PTC-517
Accessory S/N,B026561646
  Temperature,24.05 C
  Control sensor,Holder
  Monitor sensor,Holder

Measurement date,3/9/2020 4:23 PM

CD Overload detect,1
Photometric mode,CD, HT, Abs
Measure range,500 - 185 nm
Data pitch,1 nm
CD scale,20 mdeg/0.05 dOD
FL scale,20 mdeg/0.05 dOD
D.I.T.,4 sec
Bandwidth,1.00 nm
Start mode,Immediately
Scanning mode,Continuous
Scanning speed,100 nm/min
Baseline correction,None
Shutter control,Auto
Accumulations,1
N2 Flowmeter,Manual


